TITLE	WF_OEP24A_DPC0,5_heat_frac2_180522
DATA TYPE	
ORIGIN	JASCO
OWNER	
DATE	22/05/18
TIME	16:31:31
SPECTROMETER/DATA SYSTEM	
LOCALE	8192
XUNITS	Temperature[C]
YUNITS	CD [mdeg]
Y2UNITS	HT [V]
FIRSTX	   19.9800
LASTX	  110.0100
NPOINTS	      91
XYDATA
19.9800	-43.8988	356.609
20.9700	-43.5175	356.971
22.0300	-43.0048	357.482
23.0500	-43.4788	358.251
24.0200	-43.2134	358.952
25.0200	-43.5349	359.622
26.0400	-43.3745	360.302
27.0100	-43.2025	361.053
28.0200	-43.0853	361.804
29.0200	-43.0849	362.457
30.0200	-42.7829	363.24
31.0200	-42.4697	364.07
32.0300	-42.9381	364.891
33.0300	-42.8417	365.603
34.0200	-42.6932	366.408
35.0300	-42.7664	367.266
36.0300	-42.818	368.145
37.0200	-41.8384	368.994
38.0200	-42.3421	369.967
39.0000	-42.4756	370.858
40.0300	-41.8001	371.894
41.0200	-41.7754	372.814
42.0200	-41.7943	373.894
43.0200	-41.6732	374.908
44.0400	-41.3531	376.089
45.0100	-41.2556	377.235
46.0200	-41.2056	378.402
47.0100	-41.341	379.669
48.0100	-42.0644	381.04
49.0400	-41.3729	382.409
50.0200	-40.7789	383.82
51.0400	-40.9588	385.361
51.9900	-40.439	386.878
53.0100	-40.8024	388.575
54.0100	-40.5544	390.358
55.0300	-40.0471	392.335
56.0200	-40.6136	394.336
57.0200	-39.6854	396.552
58.0100	-40.1526	398.881
59.0300	-40.3372	401.368
60.0100	-39.1769	404.039
61.0500	-39.1507	407.011
62.0400	-38.8595	410.137
63.0300	-38.8587	413.273
64.0400	-38.5918	416.759
65.0400	-37.8944	420.171
66.0200	-37.6627	423.551
67.0400	-36.1589	426.819
68.0100	-36.028	429.871
69.0000	-36.5777	432.553
69.9900	-34.8916	434.957
71.0100	-33.9368	436.985
72.0100	-34.4773	438.574
73.0400	-33.6853	439.744
74.0100	-32.3607	440.444
75.0100	-31.3507	440.249
76.0200	-29.9931	437.859
77.0200	-27.5127	432.619
78.0200	-23.9652	425.203
79.0100	-20.8973	413.893
80.0200	-18.3065	405.266
81.0200	-16.0312	389.099
82.0200	-14.7509	384.26
83.0100	-13.9373	383.896
84.0200	-13.3249	383.091
85.0200	-11.9681	381.391
86.0300	-11.5777	380.298
87.0200	-11.2303	379.434
88.0000	-11.0636	378.718
89.0000	-10.5409	378.009
90.0200	-9.3173	378.449
91.0500	-9.77761	377.833
92.0100	-8.83519	377.914
93.0200	-9.01034	378.104
94.0100	-8.60974	379.006
95.0200	-8.01199	379.742
96.0400	-7.96286	380.467
97.0300	-8.15881	381.335
98.0200	-8.0912	382.23
99.0100	-7.79861	383.575
100.0400	-7.86789	384.874
101.0300	-7.28287	385.893
102.0400	-7.48585	387.283
103.0200	-7.15934	388.855
104.0400	-6.58673	390.508
105.0400	-7.35587	392.39
106.0400	-6.99765	394.088
107.0400	-6.23709	395.977
108.0400	-6.52698	397.799
109.0300	-7.78065	400.052
110.0100	-7.0007	402.385

##### Extended Information
[Comments]
Sample name	WF_OEP24A_DPC0,5_heat_frac2_180522
Comment
User
Division
Company	TUM

[Detailed Information]
Creation date	18/05/2022 15:31

Data array type	Non-linear data array * 2
Horizontal axis	Temperature [C]
Vertical axis(1)	CD [mdeg]
Vertical axis(2)	HT [V]
Start	19.98 C
End	110.01 C
Data points	91      

[Measurement Information]
Instrument name	J-1500
Model name	J-1500
Serial No.	D066761638

Detector	PM-539
Detector S/N	D066761638
  Lock-in amp.	X mode
  HT volt	Auto

Accessory	PTC-517
Accessory S/N	C036561646
  Control sensor	Holder
  Monitor sensor	Holder
  Start Mode	Keep target temperature +/-0.10 deg C while 5 seconds

Measurement date	18/05/2022 15:23

Photometric mode	CD, HT
CD scale	200 mdeg/0.1 dOD
FL scale	200 mdeg/0.1 dOD
D.I.T.	2 sec
Bandwidth	5.00 nm
Monitor wavelength	217 nm
Baseline correction	None
Shutter control	Auto
No. of cycle	1

Concentration	18.1 umol/L
Solvent	20mM HEPES pH7_20mM NaCl_0,5mM EDTA_5mM DTT_0,1 percent DPC

Start Temperature	20 C
Stage-1	Target 110 C, Interval 1 C, Ramp rate 1 C/min, Wait 0 sec
Temp. ramp mode	Halt, wait 0 sec before acquiring data

