TITLE	WF_OEP24A_DPC0,5_heat_180522
DATA TYPE	
ORIGIN	JASCO
OWNER	
DATE	22/05/18
TIME	16:30:34
SPECTROMETER/DATA SYSTEM	
LOCALE	8192
XUNITS	Temperature[C]
YUNITS	CD [mdeg]
Y2UNITS	HT [V]
FIRSTX	   20.0100
LASTX	  110.0300
NPOINTS	      91
XYDATA
20.0100	-39.1794	361.737
21.0200	-39.0125	362.156
22.0300	-39.1387	363.023
23.0500	-38.6332	363.944
24.0200	-38.8013	364.76
25.0000	-38.8663	365.644
26.0200	-38.4771	366.49
27.0000	-38.7028	367.41
28.0400	-38.6093	368.29
29.0200	-37.9532	369.146
30.0200	-38.8955	370.106
31.0300	-38.3246	371.004
32.0200	-38.1365	371.921
33.0100	-38.0749	372.95
34.0300	-37.9869	373.882
35.0200	-37.8531	374.867
36.0300	-38.2451	375.791
37.0300	-37.5096	376.832
38.0200	-37.5309	377.755
39.0400	-38.3404	378.752
40.0100	-37.3747	379.674
41.0300	-37.9412	380.781
42.0300	-37.7582	381.828
43.0200	-37.3593	382.933
44.0300	-37.5629	384.043
45.0100	-38.0336	385.187
46.0300	-37.7462	386.377
47.0100	-38.0302	387.502
48.0100	-37.433	388.672
49.0300	-37.7134	389.879
50.0200	-38.5006	391.135
51.0400	-37.2746	392.423
52.0100	-38.1042	393.694
53.0100	-38.5523	394.991
54.0200	-37.8023	396.296
55.0300	-38.238	397.779
56.0300	-38.4501	399.116
57.0100	-37.7916	400.538
58.0300	-38.6472	401.996
59.0100	-38.1916	403.571
60.0100	-37.6876	405.109
61.0100	-38.1159	406.69
62.0200	-38.6539	408.393
63.0400	-38.2689	410.099
64.0300	-38.5024	411.954
65.0400	-38.4591	413.836
66.0200	-39.3323	415.967
67.0200	-37.7759	418.163
68.0300	-38.1341	420.503
69.0200	-37.7149	423.047
70.0300	-37.4685	425.845
71.0400	-37.7063	428.94
72.0300	-37.4566	432.236
73.0300	-37.6179	435.8
74.0300	-37.0779	439.525
74.9900	-35.8003	443.891
76.0100	-36.0893	448.062
77.0200	-35.7069	452.193
78.0300	-34.4352	456.413
79.0200	-35.1516	460.175
80.0300	-33.956	463.702
81.0100	-32.7551	466.6
82.0300	-32.2221	468.862
83.0000	-31.4087	470.813
84.0400	-31.2438	472.021
85.0200	-29.453	471.833
86.0200	-26.2943	468.973
87.0400	-22.696	460.339
88.0500	-20.4412	449.452
89.0200	-16.8961	436.462
90.0300	-12.7898	440.414
90.9900	-12.5008	436.561
92.0200	-10.4889	437.735
93.0300	-9.72529	437.023
94.0100	-10.1716	435.108
95.0400	-9.86354	435.71
96.0300	-9.02404	440.936
97.0100	-7.08797	439.866
98.0200	-7.70088	440.367
99.0300	-7.41007	442.491
100.0400	-6.745	444.309
101.0300	-6.32253	444.942
102.0300	-6.70925	447.997
103.0300	-7.98966	449.834
104.0100	-6.5079	449.868
105.0200	-6.23481	452.071
106.0100	-7.65341	454.497
107.0100	-7.11149	456.557
108.0200	-6.15145	458.42
109.0200	-7.33226	461.116
110.0300	-5.92548	463.145

##### Extended Information
[Comments]
Sample name	WF_OEP24A_DPC0,5_heat_180522
Comment
User
Division
Company	TUM

[Detailed Information]
Creation date	18/05/2022 15:30

Data array type	Non-linear data array * 2
Horizontal axis	Temperature [C]
Vertical axis(1)	CD [mdeg]
Vertical axis(2)	HT [V]
Start	20.01 C
End	110.03 C
Data points	91      

[Measurement Information]
Instrument name	J-1500
Model name	J-1500
Serial No.	D066761638

Detector	PM-539
Detector S/N	D066761638
  Lock-in amp.	X mode
  HT volt	Auto

Accessory	PTC-517
Accessory S/N	C036561646
  Control sensor	Holder
  Monitor sensor	Holder
  Start Mode	Keep target temperature +/-0.10 deg C while 5 seconds

Measurement date	18/05/2022 13:16

Photometric mode	CD, HT
CD scale	200 mdeg/0.1 dOD
FL scale	200 mdeg/0.1 dOD
D.I.T.	2 sec
Bandwidth	5.00 nm
Monitor wavelength	215.8 nm
Baseline correction	None
Shutter control	Auto
No. of cycle	1

Concentration	16.8 umol/L
Solvent	20mM HEPES pH7_20mM NaCl_0,5mM EDTA_5mM DTT_0,1 percent DPC

Start Temperature	20 C
Stage-1	Target 110 C, Interval 1 C, Ramp rate 1 C/min, Wait 0 sec
Temp. ramp mode	Halt, wait 0 sec before acquiring data

